#  E (eV)   dos(E)     Int dos(E) EFermi =   12.555 eV
   5.000  0.1225E+00  0.1225E-01
   5.100  0.1044E+00  0.2269E-01
   5.200  0.9209E-01  0.3190E-01
   5.300  0.9441E-01  0.4134E-01
   5.400  0.1193E+00  0.5328E-01
   5.500  0.1579E+00  0.6906E-01
   5.600  0.1880E+00  0.8786E-01
   5.700  0.1911E+00  0.1070E+00
   5.800  0.1652E+00  0.1235E+00
   5.900  0.1332E+00  0.1368E+00
   6.000  0.1244E+00  0.1492E+00
   6.100  0.1420E+00  0.1635E+00
   6.200  0.1687E+00  0.1803E+00
   6.300  0.1951E+00  0.1998E+00
   6.400  0.2250E+00  0.2223E+00
   6.500  0.2570E+00  0.2480E+00
   6.600  0.2705E+00  0.2751E+00
   6.700  0.2481E+00  0.2999E+00
   6.800  0.2084E+00  0.3207E+00
   6.900  0.1929E+00  0.3400E+00
   7.000  0.2278E+00  0.3628E+00
   7.100  0.3113E+00  0.3939E+00
   7.200  0.4113E+00  0.4351E+00
   7.300  0.4829E+00  0.4834E+00
   7.400  0.5192E+00  0.5353E+00
   7.500  0.5700E+00  0.5923E+00
   7.600  0.6873E+00  0.6610E+00
   7.700  0.8662E+00  0.7476E+00
   7.800  0.1051E+01  0.8527E+00
   7.900  0.1183E+01  0.9710E+00
   8.000  0.1250E+01  0.1096E+01
   8.100  0.1320E+01  0.1228E+01
   8.200  0.1499E+01  0.1378E+01
   8.300  0.1794E+01  0.1557E+01
   8.400  0.2085E+01  0.1766E+01
   8.500  0.2245E+01  0.1990E+01
   8.600  0.2250E+01  0.2215E+01
   8.700  0.2166E+01  0.2432E+01
   8.800  0.2085E+01  0.2640E+01
   8.900  0.2081E+01  0.2848E+01
   9.000  0.2200E+01  0.3068E+01
   9.100  0.2435E+01  0.3312E+01
   9.200  0.2731E+01  0.3585E+01
   9.300  0.3039E+01  0.3889E+01
   9.400  0.3358E+01  0.4225E+01
   9.500  0.3694E+01  0.4594E+01
   9.600  0.3971E+01  0.4991E+01
   9.700  0.4034E+01  0.5394E+01
   9.800  0.3775E+01  0.5772E+01
   9.900  0.3308E+01  0.6103E+01
  10.000  0.2932E+01  0.6396E+01
  10.100  0.2878E+01  0.6684E+01
  10.200  0.3102E+01  0.6994E+01
  10.300  0.3360E+01  0.7330E+01
  10.400  0.3460E+01  0.7676E+01
  10.500  0.3402E+01  0.8016E+01
  10.600  0.3360E+01  0.8352E+01
  10.700  0.3559E+01  0.8708E+01
  10.800  0.4039E+01  0.9112E+01
  10.900  0.4420E+01  0.9554E+01
  11.000  0.4122E+01  0.9966E+01
  11.100  0.2984E+01  0.1026E+02
  11.200  0.1543E+01  0.1042E+02
  11.300  0.5239E+00  0.1047E+02
  11.400  0.1845E+00  0.1049E+02
  11.500  0.2718E+00  0.1052E+02
  11.600  0.4177E+00  0.1056E+02
  11.700  0.4368E+00  0.1060E+02
  11.800  0.3467E+00  0.1064E+02
  11.900  0.2499E+00  0.1066E+02
  12.000  0.2275E+00  0.1068E+02
  12.100  0.2919E+00  0.1071E+02
  12.200  0.3882E+00  0.1075E+02
  12.300  0.4410E+00  0.1080E+02
  12.400  0.4197E+00  0.1084E+02
  12.500  0.3540E+00  0.1087E+02
  12.600  0.2910E+00  0.1090E+02
  12.700  0.2535E+00  0.1093E+02
  12.800  0.2329E+00  0.1095E+02
  12.900  0.2133E+00  0.1097E+02
  13.000  0.2001E+00  0.1099E+02
  13.100  0.2176E+00  0.1101E+02
  13.200  0.2745E+00  0.1104E+02
  13.300  0.3437E+00  0.1108E+02
  13.400  0.3870E+00  0.1112E+02
  13.500  0.3884E+00  0.1115E+02
  13.600  0.3531E+00  0.1119E+02
  13.700  0.2964E+00  0.1122E+02
  13.800  0.2430E+00  0.1124E+02
  13.900  0.2142E+00  0.1126E+02
  14.000  0.2099E+00  0.1129E+02
  14.100  0.2084E+00  0.1131E+02
  14.200  0.1839E+00  0.1133E+02
  14.300  0.1431E+00  0.1134E+02
  14.400  0.1386E+00  0.1135E+02
  14.500  0.2118E+00  0.1137E+02
  14.600  0.3305E+00  0.1141E+02
  14.700  0.4091E+00  0.1145E+02
  14.800  0.3935E+00  0.1149E+02
  14.900  0.3087E+00  0.1152E+02
  15.000  0.2134E+00  0.1154E+02
  15.100  0.1427E+00  0.1155E+02
  15.200  0.1160E+00  0.1157E+02
  15.300  0.1422E+00  0.1158E+02
  15.400  0.1875E+00  0.1160E+02
  15.500  0.1958E+00  0.1162E+02
  15.600  0.1592E+00  0.1163E+02
  15.700  0.1305E+00  0.1165E+02
  15.800  0.1546E+00  0.1166E+02
  15.900  0.2073E+00  0.1168E+02
  16.000  0.2210E+00  0.1171E+02
  16.100  0.1722E+00  0.1172E+02
  16.200  0.1187E+00  0.1173E+02
  16.300  0.1276E+00  0.1175E+02
  16.400  0.1972E+00  0.1177E+02
  16.500  0.2757E+00  0.1179E+02
  16.600  0.3225E+00  0.1183E+02
  16.700  0.3274E+00  0.1186E+02
  16.800  0.3004E+00  0.1189E+02
  16.900  0.2702E+00  0.1192E+02
  17.000  0.2661E+00  0.1194E+02
  17.100  0.2886E+00  0.1197E+02
  17.200  0.3179E+00  0.1200E+02
  17.300  0.3427E+00  0.1204E+02
  17.400  0.3556E+00  0.1207E+02
  17.500  0.3366E+00  0.1211E+02
  17.600  0.2771E+00  0.1214E+02
  17.700  0.2129E+00  0.1216E+02
  17.800  0.1981E+00  0.1218E+02
  17.900  0.2428E+00  0.1220E+02
  18.000  0.2967E+00  0.1223E+02
  18.100  0.3028E+00  0.1226E+02
  18.200  0.2579E+00  0.1229E+02
  18.300  0.2082E+00  0.1231E+02
  18.400  0.1909E+00  0.1233E+02
  18.500  0.1959E+00  0.1235E+02
  18.600  0.2040E+00  0.1237E+02
  18.700  0.2343E+00  0.1239E+02
  18.800  0.3105E+00  0.1242E+02
  18.900  0.3924E+00  0.1246E+02
  19.000  0.4005E+00  0.1250E+02
  19.100  0.3194E+00  0.1253E+02
  19.200  0.2196E+00  0.1255E+02
  19.300  0.1692E+00  0.1257E+02
  19.400  0.1776E+00  0.1259E+02
  19.500  0.2197E+00  0.1261E+02
  19.600  0.2631E+00  0.1264E+02
  19.700  0.2751E+00  0.1266E+02
  19.800  0.2416E+00  0.1269E+02
  19.900  0.1888E+00  0.1271E+02
  20.000  0.1679E+00  0.1272E+02
  20.100  0.2087E+00  0.1275E+02
  20.200  0.2885E+00  0.1277E+02
  20.300  0.3533E+00  0.1281E+02
  20.400  0.3805E+00  0.1285E+02
  20.500  0.3919E+00  0.1289E+02
  20.600  0.4080E+00  0.1293E+02
  20.700  0.4274E+00  0.1297E+02
  20.800  0.4307E+00  0.1301E+02
  20.900  0.3886E+00  0.1305E+02
  21.000  0.3146E+00  0.1308E+02
  21.100  0.2816E+00  0.1311E+02
  21.200  0.3294E+00  0.1314E+02
  21.300  0.4093E+00  0.1319E+02
  21.400  0.4546E+00  0.1323E+02
  21.500  0.4461E+00  0.1328E+02
  21.600  0.3944E+00  0.1332E+02
  21.700  0.3125E+00  0.1335E+02
  21.800  0.2272E+00  0.1337E+02
  21.900  0.1802E+00  0.1339E+02
  22.000  0.1977E+00  0.1341E+02
  22.100  0.2744E+00  0.1343E+02
  22.200  0.3807E+00  0.1347E+02
  22.300  0.4599E+00  0.1352E+02
  22.400  0.4653E+00  0.1356E+02
  22.500  0.4292E+00  0.1361E+02
  22.600  0.4211E+00  0.1365E+02
  22.700  0.4312E+00  0.1369E+02
  22.800  0.3957E+00  0.1373E+02
  22.900  0.3269E+00  0.1377E+02
  23.000  0.3052E+00  0.1380E+02
  23.100  0.3529E+00  0.1383E+02
  23.200  0.4127E+00  0.1387E+02
  23.300  0.4387E+00  0.1392E+02
  23.400  0.4378E+00  0.1396E+02
  23.500  0.4286E+00  0.1400E+02
  23.600  0.4057E+00  0.1404E+02
  23.700  0.3535E+00  0.1408E+02
  23.800  0.2907E+00  0.1411E+02
  23.900  0.2715E+00  0.1414E+02
  24.000  0.3120E+00  0.1417E+02
  24.100  0.3599E+00  0.1420E+02
  24.200  0.3767E+00  0.1424E+02
  24.300  0.3969E+00  0.1428E+02
  24.400  0.4574E+00  0.1433E+02
  24.500  0.5186E+00  0.1438E+02
  24.600  0.5073E+00  0.1443E+02
  24.700  0.4135E+00  0.1447E+02
  24.800  0.3145E+00  0.1450E+02
  24.900  0.3045E+00  0.1453E+02
  25.000  0.3998E+00  0.1457E+02
