# E (eV)   ldos(E)   pdos(E)   
   5.000  0.313E-01  0.313E-01
   5.100  0.641E-01  0.641E-01
   5.200  0.857E-01  0.857E-01
   5.300  0.758E-01  0.758E-01
   5.400  0.438E-01  0.438E-01
   5.500  0.136E-01  0.136E-01
   5.600 -0.126E-02 -0.126E-02
   5.700 -0.216E-02 -0.216E-02
   5.800  0.369E-02  0.369E-02
   5.900  0.890E-02  0.890E-02
   6.000  0.947E-02  0.947E-02
   6.100  0.112E-01  0.112E-01
   6.200  0.274E-01  0.274E-01
   6.300  0.614E-01  0.614E-01
   6.400  0.942E-01  0.942E-01
   6.500  0.101E+00  0.101E+00
   6.600  0.769E-01  0.769E-01
   6.700  0.491E-01  0.491E-01
   6.800  0.459E-01  0.459E-01
   6.900  0.660E-01  0.660E-01
   7.000  0.826E-01  0.826E-01
   7.100  0.800E-01  0.800E-01
   7.200  0.659E-01  0.659E-01
   7.300  0.511E-01  0.511E-01
   7.400  0.423E-01  0.423E-01
   7.500  0.504E-01  0.504E-01
   7.600  0.830E-01  0.830E-01
   7.700  0.132E+00  0.132E+00
   7.800  0.180E+00  0.180E+00
   7.900  0.204E+00  0.204E+00
   8.000  0.187E+00  0.187E+00
   8.100  0.140E+00  0.140E+00
   8.200  0.966E-01  0.966E-01
   8.300  0.738E-01  0.738E-01
   8.400  0.611E-01  0.611E-01
   8.500  0.453E-01  0.453E-01
   8.600  0.283E-01  0.283E-01
   8.700  0.173E-01  0.173E-01
   8.800  0.124E-01  0.124E-01
   8.900  0.924E-02  0.924E-02
   9.000  0.580E-02  0.580E-02
   9.100  0.380E-02  0.380E-02
   9.200  0.496E-02  0.496E-02
   9.300  0.895E-02  0.895E-02
   9.400  0.145E-01  0.145E-01
   9.500  0.210E-01  0.210E-01
   9.600  0.273E-01  0.273E-01
   9.700  0.305E-01  0.305E-01
   9.800  0.276E-01  0.276E-01
   9.900  0.194E-01  0.194E-01
  10.000  0.103E-01  0.103E-01
  10.100  0.455E-02  0.455E-02
  10.200  0.331E-02  0.331E-02
  10.300  0.489E-02  0.489E-02
  10.400  0.656E-02  0.656E-02
  10.500  0.628E-02  0.628E-02
  10.600  0.394E-02  0.394E-02
  10.700  0.157E-02  0.157E-02
  10.800  0.230E-02  0.230E-02
  10.900  0.827E-02  0.827E-02
  11.000  0.180E-01  0.180E-01
  11.100  0.260E-01  0.260E-01
  11.200  0.275E-01  0.275E-01
  11.300  0.222E-01  0.222E-01
  11.400  0.134E-01  0.134E-01
  11.500  0.522E-02  0.522E-02
  11.600 -0.224E-04 -0.224E-04
  11.700 -0.245E-02 -0.245E-02
  11.800 -0.271E-02 -0.271E-02
  11.900  0.396E-03  0.396E-03
  12.000  0.926E-02  0.926E-02
  12.100  0.249E-01  0.249E-01
  12.200  0.459E-01  0.459E-01
  12.300  0.675E-01  0.675E-01
  12.400  0.795E-01  0.795E-01
  12.500  0.753E-01  0.753E-01
  12.600  0.648E-01  0.648E-01
  12.700  0.599E-01  0.599E-01
  12.800  0.554E-01  0.554E-01
  12.900  0.396E-01  0.396E-01
  13.000  0.162E-01  0.162E-01
  13.100 -0.506E-03 -0.506E-03
  13.200 -0.200E-02 -0.200E-02
  13.300  0.118E-01  0.118E-01
  13.400  0.328E-01  0.328E-01
  13.500  0.468E-01  0.468E-01
  13.600  0.471E-01  0.471E-01
  13.700  0.437E-01  0.437E-01
  13.800  0.449E-01  0.449E-01
  13.900  0.428E-01  0.428E-01
  14.000  0.291E-01  0.291E-01
  14.100  0.105E-01  0.105E-01
  14.200 -0.199E-02 -0.199E-02
  14.300 -0.533E-02 -0.533E-02
  14.400  0.995E-04  0.995E-04
  14.500  0.150E-01  0.150E-01
  14.600  0.353E-01  0.353E-01
  14.700  0.521E-01  0.521E-01
  14.800  0.641E-01  0.641E-01
  14.900  0.747E-01  0.747E-01
  15.000  0.763E-01  0.763E-01
  15.100  0.580E-01  0.580E-01
  15.200  0.272E-01  0.272E-01
  15.300  0.265E-02  0.265E-02
  15.400 -0.812E-02 -0.812E-02
  15.500 -0.808E-02 -0.808E-02
  15.600  0.531E-02  0.531E-02
  15.700  0.379E-01  0.379E-01
  15.800  0.779E-01  0.779E-01
  15.900  0.949E-01  0.949E-01
  16.000  0.761E-01  0.761E-01
  16.100  0.459E-01  0.459E-01
  16.200  0.306E-01  0.306E-01
  16.300  0.250E-01  0.250E-01
  16.400  0.149E-01  0.149E-01
  16.500  0.151E-01  0.151E-01
  16.600  0.608E-01  0.608E-01
  16.700  0.160E+00  0.160E+00
  16.800  0.265E+00  0.265E+00
  16.900  0.310E+00  0.310E+00
  17.000  0.264E+00  0.264E+00
  17.100  0.156E+00  0.156E+00
  17.200  0.518E-01  0.518E-01
  17.300 -0.655E-02 -0.655E-02
  17.400 -0.195E-01 -0.195E-01
  17.500 -0.192E-02 -0.192E-02
  17.600  0.393E-01  0.393E-01
  17.700  0.866E-01  0.866E-01
  17.800  0.106E+00  0.106E+00
  17.900  0.889E-01  0.889E-01
  18.000  0.812E-01  0.812E-01
  18.100  0.121E+00  0.121E+00
  18.200  0.173E+00  0.173E+00
  18.300  0.168E+00  0.168E+00
  18.400  0.987E-01  0.987E-01
  18.500  0.243E-01  0.243E-01
  18.600 -0.289E-02 -0.289E-02
  18.700  0.258E-01  0.258E-01
  18.800  0.829E-01  0.829E-01
  18.900  0.124E+00  0.124E+00
  19.000  0.127E+00  0.127E+00
  19.100  0.115E+00  0.115E+00
  19.200  0.119E+00  0.119E+00
  19.300  0.129E+00  0.129E+00
  19.400  0.120E+00  0.120E+00
  19.500  0.900E-01  0.900E-01
  19.600  0.605E-01  0.605E-01
  19.700  0.546E-01  0.546E-01
  19.800  0.741E-01  0.741E-01
  19.900  0.924E-01  0.924E-01
  20.000  0.825E-01  0.825E-01
  20.100  0.609E-01  0.609E-01
  20.200  0.767E-01  0.767E-01
  20.300  0.149E+00  0.149E+00
  20.400  0.232E+00  0.232E+00
  20.500  0.257E+00  0.257E+00
  20.600  0.196E+00  0.196E+00
  20.700  0.925E-01  0.925E-01
  20.800  0.859E-02  0.859E-02
  20.900 -0.227E-01 -0.227E-01
  21.000  0.458E-02  0.458E-02
  21.100  0.873E-01  0.873E-01
  21.200  0.195E+00  0.195E+00
  21.300  0.276E+00  0.276E+00
  21.400  0.307E+00  0.307E+00
  21.500  0.304E+00  0.304E+00
  21.600  0.272E+00  0.272E+00
  21.700  0.194E+00  0.194E+00
  21.800  0.907E-01  0.907E-01
  21.900  0.126E-01  0.126E-01
  22.000  0.447E-02  0.447E-02
  22.100  0.725E-01  0.725E-01
  22.200  0.171E+00  0.171E+00
  22.300  0.217E+00  0.217E+00
  22.400  0.172E+00  0.172E+00
  22.500  0.846E-01  0.846E-01
  22.600  0.296E-01  0.296E-01
  22.700  0.214E-01  0.214E-01
  22.800  0.243E-01  0.243E-01
  22.900  0.114E-01  0.114E-01
  23.000 -0.823E-02 -0.823E-02
  23.100  0.259E-02  0.259E-02
  23.200  0.831E-01  0.831E-01
  23.300  0.223E+00  0.223E+00
  23.400  0.332E+00  0.332E+00
  23.500  0.317E+00  0.317E+00
  23.600  0.194E+00  0.194E+00
  23.700  0.717E-01  0.717E-01
  23.800  0.204E-01  0.204E-01
  23.900  0.214E-01  0.214E-01
  24.000  0.246E-01  0.246E-01
  24.100  0.130E-01  0.130E-01
  24.200  0.128E-01  0.128E-01
  24.300  0.654E-01  0.654E-01
  24.400  0.177E+00  0.177E+00
  24.500  0.281E+00  0.281E+00
  24.600  0.290E+00  0.290E+00
  24.700  0.203E+00  0.203E+00
  24.800  0.114E+00  0.114E+00
  24.900  0.975E-01  0.975E-01
  25.000  0.125E+00  0.125E+00
  25.100  0.128E+00  0.128E+00
