# E (eV)   ldos(E)   pdos(E)   
  15.000 -0.829E-09 -0.829E-09
  15.100 -0.197E-07 -0.197E-07
  15.200 -0.351E-06 -0.351E-06
  15.300 -0.466E-05 -0.466E-05
  15.400 -0.459E-04 -0.459E-04
  15.500 -0.331E-03 -0.331E-03
  15.600 -0.172E-02 -0.172E-02
  15.700 -0.624E-02 -0.624E-02
  15.800 -0.144E-01 -0.144E-01
  15.900 -0.145E-01 -0.145E-01
  16.000  0.263E-01  0.263E-01
  16.100  0.133E+00  0.133E+00
  16.200  0.263E+00  0.263E+00
  16.300  0.312E+00  0.312E+00
  16.400  0.234E+00  0.234E+00
  16.500  0.101E+00  0.101E+00
  16.600  0.100E-01  0.100E-01
  16.700 -0.167E-01 -0.167E-01
  16.800 -0.123E-01 -0.123E-01
  16.900 -0.468E-02 -0.468E-02
  17.000 -0.117E-02 -0.117E-02
  17.100 -0.207E-03 -0.207E-03
  17.200 -0.265E-04 -0.265E-04
  17.300 -0.249E-05 -0.249E-05
  17.400 -0.174E-06 -0.174E-06
  17.500 -0.909E-08 -0.909E-08
  17.600 -0.356E-09 -0.356E-09
  17.700 -0.105E-10 -0.105E-10
  17.800 -0.964E-11 -0.964E-11
  17.900 -0.339E-09 -0.339E-09
  18.000 -0.919E-08 -0.919E-08
  18.100 -0.189E-06 -0.189E-06
  18.200 -0.290E-05 -0.290E-05
  18.300 -0.332E-04 -0.332E-04
  18.400 -0.280E-03 -0.280E-03
  18.500 -0.172E-02 -0.172E-02
  18.600 -0.751E-02 -0.751E-02
  18.700 -0.221E-01 -0.221E-01
  18.800 -0.371E-01 -0.371E-01
  18.900 -0.364E-02 -0.364E-02
  19.000  0.156E+00  0.156E+00
  19.100  0.435E+00  0.435E+00
  19.200  0.653E+00  0.653E+00
  19.300  0.621E+00  0.621E+00
  19.400  0.385E+00  0.385E+00
  19.500  0.164E+00  0.164E+00
  19.600  0.705E-01  0.705E-01
  19.700  0.491E-01  0.491E-01
  19.800  0.297E-01  0.297E-01
  19.900  0.685E-02  0.685E-02
  20.000 -0.451E-02 -0.451E-02
  20.100 -0.487E-02 -0.487E-02
  20.200 -0.227E-02 -0.227E-02
  20.300 -0.677E-03 -0.677E-03
  20.400 -0.203E-03 -0.203E-03
  20.500 -0.516E-03 -0.516E-03
  20.600 -0.267E-02 -0.267E-02
  20.700 -0.101E-01 -0.101E-01
  20.800 -0.246E-01 -0.246E-01
  20.900 -0.284E-01 -0.284E-01
  21.000  0.345E-01  0.345E-01
  21.100  0.216E+00  0.216E+00
  21.200  0.455E+00  0.455E+00
  21.300  0.567E+00  0.567E+00
  21.400  0.446E+00  0.446E+00
  21.500  0.206E+00  0.206E+00
  21.600  0.293E-01  0.293E-01
  21.700 -0.291E-01 -0.291E-01
  21.800 -0.239E-01 -0.239E-01
  21.900 -0.958E-02 -0.958E-02
  22.000 -0.250E-02 -0.250E-02
  22.100 -0.457E-03 -0.457E-03
  22.200 -0.603E-04 -0.603E-04
